Wavelength (nm)	CIE Standard Illuminant D65
380	49.98
381	50.44
382	50.91
383	51.38
384	51.84
385	52.31
386	52.78
387	53.25
388	53.71
389	54.18
390	54.65
391	57.46
392	60.27
393	63.08
394	65.89
395	68.7
396	71.51
397	74.32
398	77.13
399	79.94
400	82.75
401	83.63
402	84.5
403	85.37
404	86.25
405	87.12
406	87.99
407	88.87
408	89.74
409	90.61
410	91.49
411	91.68
412	91.88
413	92.07
414	92.26
415	92.46
416	92.65
417	92.85
418	93.04
419	93.24
420	93.43
421	92.76
422	92.08
423	91.41
424	90.73
425	90.06
426	89.38
427	88.71
428	88.03
429	87.36
430	86.68
431	88.5
432	90.32
433	92.14
434	93.96
435	95.77
436	97.59
437	99.41
438	101.23
439	103.05
440	104.87
441	106.08
442	107.29
443	108.51
444	109.72
445	110.94
446	112.15
447	113.36
448	114.58
449	115.79
450	117.01
451	117.09
452	117.17
453	117.25
454	117.33
455	117.41
456	117.49
457	117.57
458	117.65
459	117.73
460	117.81
461	117.52
462	117.22
463	116.93
464	116.63
465	116.34
466	116.04
467	115.75
468	115.45
469	115.16
470	114.86
471	114.97
472	115.07
473	115.18
474	115.29
475	115.39
476	115.5
477	115.6
478	115.71
479	115.82
480	115.92
481	115.21
482	114.5
483	113.79
484	113.08
485	112.37
486	111.66
487	110.94
488	110.23
489	109.52
490	108.81
491	108.87
492	108.92
493	108.97
494	109.03
495	109.08
496	109.14
497	109.19
498	109.25
499	109.3
500	109.35
501	109.2
502	109.04
503	108.89
504	108.73
505	108.58
506	108.42
507	108.27
508	108.11
509	107.96
510	107.8
511	107.5
512	107.2
513	106.9
514	106.6
515	106.3
516	105.99
517	105.69
518	105.39
519	105.09
520	104.79
521	105.08
522	105.37
523	105.66
524	105.95
525	106.24
526	106.53
527	106.82
528	107.11
529	107.4
530	107.69
531	107.36
532	107.03
533	106.7
534	106.38
535	106.05
536	105.72
537	105.39
538	105.06
539	104.73
540	104.41
541	104.37
542	104.33
543	104.3
544	104.26
545	104.23
546	104.19
547	104.15
548	104.12
549	104.08
550	104.05
551	103.64
552	103.24
553	102.83
554	102.43
555	102.02
556	101.62
557	101.21
558	100.81
559	100.4
560	100
561	99.63
562	99.27
563	98.9
564	98.53
565	98.17
566	97.8
567	97.43
568	97.07
569	96.7
570	96.33
571	96.28
572	96.22
573	96.17
574	96.12
575	96.06
576	96.01
577	95.95
578	95.9
579	95.84
580	95.79
581	95.08
582	94.37
583	93.66
584	92.95
585	92.24
586	91.53
587	90.82
588	90.11
589	89.4
590	88.69
591	88.82
592	88.95
593	89.08
594	89.21
595	89.35
596	89.48
597	89.61
598	89.74
599	89.87
600	90.01
601	89.97
602	89.92
603	89.88
604	89.84
605	89.8
606	89.76
607	89.72
608	89.68
609	89.64
610	89.6
611	89.41
612	89.22
613	89.03
614	88.84
615	88.65
616	88.46
617	88.27
618	88.08
619	87.89
620	87.7
621	87.26
622	86.82
623	86.38
624	85.93
625	85.49
626	85.05
627	84.61
628	84.17
629	83.73
630	83.29
631	83.33
632	83.37
633	83.41
634	83.45
635	83.49
636	83.53
637	83.58
638	83.62
639	83.66
640	83.7
641	83.33
642	82.96
643	82.6
644	82.23
645	81.86
646	81.5
647	81.13
648	80.76
649	80.39
650	80.03
651	80.05
652	80.06
653	80.08
654	80.1
655	80.12
656	80.14
657	80.16
658	80.18
659	80.2
660	80.21
661	80.42
662	80.63
663	80.83
664	81.04
665	81.25
666	81.45
667	81.66
668	81.87
669	82.07
670	82.28
671	81.88
672	81.48
673	81.08
674	80.68
675	80.28
676	79.88
677	79.48
678	79.08
679	78.68
680	78.28
681	77.43
682	76.57
683	75.72
684	74.86
685	74
686	73.15
687	72.29
688	71.43
689	70.58
690	69.72
691	69.91
692	70.1
693	70.29
694	70.48
695	70.67
696	70.85
697	71.04
698	71.23
699	71.42
700	71.61
701	71.88
702	72.16
703	72.43
704	72.71
705	72.98
706	73.25
707	73.53
708	73.8
709	74.08
710	74.35
711	73.07
712	71.8
713	70.53
714	69.25
715	67.98
716	66.7
717	65.43
718	64.15
719	62.88
720	61.6
721	62.43
722	63.26
723	64.09
724	64.92
725	65.74
726	66.57
727	67.4
728	68.23
729	69.06
730	69.89
731	70.41
732	70.93
733	71.45
734	71.97
735	72.49
736	73.01
737	73.53
738	74.05
739	74.57
740	75.09
741	73.94
742	72.79
743	71.64
744	70.49
745	69.34
746	68.19
747	67.04
748	65.89
749	64.74
750	63.59
751	61.88
752	60.16
753	58.44
754	56.72
755	55.01
756	53.29
757	51.57
758	49.85
759	48.14
760	46.42
761	48.46
762	50.5
763	52.53
764	54.57
765	56.61
766	58.65
767	60.69
768	62.73
769	64.77
770	66.81
771	66.46
772	66.12
773	65.78
774	65.44
775	65.09
776	64.75
777	64.41
778	64.07
779	63.73
780	63.38